Sensor Model:   CX-1050-SD-HT-1.4L
Serial Number:  X189328
Interpolation Method:   Lagrangian
SetPoint Limit: 325.0      (Kelvin)
Data Format:    4      (Log Ohms/Kelvin)
Number of Breakpoints:   53

No.   Units      Temperature (K)

  1  1.79327       325.0
  2  1.79439       324.0
  3  1.81165       309.0
  4  1.82995       294.0
  5  1.84936       279.0
  6  1.86998       264.0
  7  1.89194       249.0
  8  1.91536       234.0
  9  1.94040       219.0
 10  1.96723       204.0
 11  1.99609       189.0
 12  2.02722       174.0
 13  2.06098       159.0
 14  2.09777       144.0
 15  2.13818       129.0
 16  2.18298       114.0
 17  2.23334        99.0
 18  2.29108        84.0
 19  2.35912        69.0
 20  2.40977        59.5
 21  2.46873        50.0
 22  2.50419        45.0
 23  2.54360        40.0
 24  2.58798        35.0
 25  2.63881        30.0
 26  2.69324        25.4
 27  2.74589        21.6
 28  2.79964        18.3
 29  2.85165        15.6
 30  2.90427        13.3
 31  2.95611        11.4
 32  3.00830         9.8
 33  3.05896         8.5
 34  3.11005         7.4
 35  3.15973         6.5
 36  3.21218         5.7
 37  3.25851         5.1
 38  3.31301         4.5
 39  3.35533         4.1
 40  3.40393         3.7
 41  3.44564         3.4
 42  3.49307         3.1
 43  3.54782         2.8
 44  3.58948         2.6
 45  3.63631         2.4
 46  3.68956         2.2
 47  3.71909         2.1
 48  3.75089         2.0
 49  3.78526         1.9
 50  3.82260         1.8
 51  3.86335         1.7
 52  3.95766         1.5
 53  4.01327         1.4
