Sensor Model:   CX-1050-SD-HT-1.4L
Serial Number:  X117656
Interpolation Method:   Lagrangian
SetPoint Limit: 325.0      (Kelvin)
Data Format:    4      (Log Ohms/Kelvin)
Number of Breakpoints:   52

No.   Units      Temperature (K)

  1  1.65980       325.0
  2  1.66087       324.0
  3  1.67750       309.0
  4  1.69519       294.0
  5  1.71403       279.0
  6  1.73414       264.0
  7  1.75562       249.0
  8  1.77863       234.0
  9  1.80331       219.0
 10  1.82987       204.0
 11  1.85851       189.0
 12  1.88952       174.0
 13  1.92322       159.0
 14  1.96004       144.0
 15  2.00054       129.0
 16  2.04550       114.0
 17  2.09607        99.0
 18  2.15396        84.0
 19  2.22198        69.0
 20  2.27238        59.5
 21  2.33070        50.0
 22  2.36556        45.0
 23  2.40410        40.0
 24  2.44722        35.0
 25  2.49622        30.0
 26  2.54822        25.4
 27  2.59809        21.6
 28  2.64862        18.3
 29  2.69914        15.5
 30  2.74840        13.2
 31  2.79685        11.3
 32  2.84562         9.7
 33  2.89305         8.4
 34  2.94100         7.3
 35  2.98776         6.4
 36  3.03728         5.6
 37  3.08117         5.0
 38  3.13299         4.4
 39  3.17340         4.0
 40  3.22002         3.6
 41  3.26021         3.3
 42  3.30615         3.0
 43  3.35947         2.7
 44  3.40021         2.5
 45  3.44618         2.3
 46  3.49865         2.1
 47  3.52786         2.0
 48  3.55942         1.9
 49  3.59371         1.8
 50  3.63115         1.7
 51  3.71801         1.5
 52  3.76874         1.4
